wavelength flux
5.21725	780356.0
5.24749	880448.0
5.27773	896502.0
5.30797	847748.0
5.33821	850517.0
5.36845	887265.847603
5.39869	900149.742063
5.42893	851650.044974
5.45917	847644.319775
5.48941	849773.295304
5.51965	881520.996364
5.54989	870451.339947
5.58013	832138.35119
5.61037	822145.596561
5.64061	806541.322751
5.67085	808848.699174
5.70109	830178.820437
5.73133	836138.103175
5.76157	794364.489087
5.79181	779991.232143
